Setup title	pulsedAmplitudeSweep_DCIV
test date	24.10.2024
test time	15:54:03
Device ID	_ID182ZR1000
N	10
Measurement Data
index, pulse amplitude (V), R_low (ohm), R_high (ohm)
    0,  0.300,3324247058.041,3853564547.206
    1,  0.336,3371998920.960,3831858067.977
    2,  0.372,3374274530.976,3823360734.085
    3,  0.408,3399048266.485,3754458419.373
    4,  0.444,3402517863.219,3811701924.909
    5,  0.480,3379748546.708,3741114852.226
    6,  0.516,3419387929.561,3765202003.087
    7,  0.552,3420323562.609,3838771593.090
    8,  0.588,3451131971.287,3791469194.313
    9,  0.624,3506926179.204,3952412948.105
   10,  0.660,3519887363.604,3884702043.353
   11,  0.696,3503363228.700,3901525496.469
   12,  0.732,3516174402.250,3959768749.505
   13,  0.768,3530450132.392,3985810514.568
   14,  0.804,3553912858.057,3934374631.152
   15,  0.840,3562776115.149,3916653611.155
   16,  0.876,3586414661.263,4019938896.929
   17,  0.912,3635041802.981,4021393815.096
   18,  0.948,3659384491.529,4035349663.048
   19,  0.984,3667167846.272,4051371389.215
   20,  1.020,3716504998.699,4130865829.478
   21,  1.056,3742655039.485,4104921801.240
   22,  1.092,3774581965.047,4238904667.034
   23,  1.128,3810685161.192,4208399966.333
   24,  1.164,3835679490.622,4226721332.263
   25,  1.200,3943684189.770,4358247984.310
   26,  1.236,3977250129.261,4513653802.753
   27,  1.272,4004004004.004,4404122258.434
   28,  1.308,4040404040.404,4433017111.446
   29,  1.344,4095339503.645,4582321404.023
   30,  1.380,4181301220.940,4662874195.654
   31,  1.416,4257130693.912,4720320981.827
   32,  1.452,4331817197.314,4727014890.097
   33,  1.488,4418717688.127,4841911586.694
   34,  1.524,4502881844.380,5058680696.074
   35,  1.560,4700352526.439,5179736869.367
   36,  1.596,4914971001.671,5464480874.317
   37,  1.632,5073051948.052,     653.253
   38,  1.668,     653.629,     653.321
   39,  1.704,     653.642,     653.351
   40,  1.740,     653.697,     653.390
   41,  1.776,     653.714,     653.398
   42,  1.812,     653.753,     653.394
   43,  1.848,     654.005,     653.667
   44,  1.884,     654.039,     653.714
   45,  1.920,     654.052,     653.714
   46,  1.956,     654.074,     653.714
   47,  1.992,     654.052,     653.714
   48,  2.028,     654.048,     653.706
   49,  2.064,     654.065,     653.710
   50,  2.100,     654.099,     653.710
   51,  2.136,     654.104,     653.731
   52,  2.172,     654.112,     653.702
   53,  2.208,     654.112,     653.719
   54,  2.244,     654.125,     653.702
   55,  2.280,     654.108,     653.706
   56,  2.316,     654.108,     653.702
   57,  2.352,     654.125,     653.744
   58,  2.388,     654.133,     653.744
   59,  2.424,     654.210,     653.817
   60,  2.460,     654.181,     653.774
   61,  2.496,     654.159,     653.757
   62,  2.532,     654.172,     653.766
   63,  2.568,     654.138,     653.787
   64,  2.604,     654.189,     653.821
   65,  2.640,     654.202,     653.855
   66,  2.676,     654.181,     653.796
   67,  2.712,     654.236,     653.826
   68,  2.748,     654.198,     653.817
   69,  2.784,     654.198,     653.821
   70,  2.820,     654.232,     653.813
   71,  2.856,     654.236,     653.855
   72,  2.892,     654.245,     653.851
   73,  2.928,     654.236,     653.881
   74,  2.964,     654.245,     653.860
   75,  3.000,     654.270,     653.898
   76,  3.036,     654.266,     653.902
   77,  3.072,     654.232,     653.877
   78,  3.108,     654.292,     653.894
   79,  3.144,     654.300,     653.954
   80,  3.180,     654.253,     653.890
   81,  3.216,     654.258,     653.873
   82,  3.252,     654.292,     653.890
   83,  3.288,     654.249,     653.855
   84,  3.324,     654.206,     653.851
   85,  3.360,     654.253,     653.920
   86,  3.396,     654.305,     653.945
   87,  3.432,     654.279,     653.915
   88,  3.468,     654.232,     653.868
   89,  3.504,     654.202,     653.868
   90,  3.540,     654.258,     653.894
   91,  3.576,     654.266,     653.915
   92,  3.612,     654.266,     653.907
   93,  3.648,     654.365,     654.022
   94,  3.684,     654.352,     653.984
   95,  3.720,     654.318,     653.958
   96,  3.756,     654.356,     654.022
   97,  3.792,     654.335,     654.027
   98,  3.828,     654.309,     653.971
   99,  3.864,     654.365,     654.005
  100,  3.900,     654.407,     654.035
  101,  3.936,     654.356,     654.035
  102,  3.972,     654.377,     654.082
  103,  4.008,     654.420,     654.138
  104, -0.400,     654.476,     654.151
  105, -0.436,     654.476,     654.151
  106, -0.472,     654.489,     654.155
  107, -0.508,     654.463,     654.159
  108, -0.544,     654.467,     654.142
  109, -0.580,     654.480,     654.176
  110, -0.616,     654.489,     654.151
  111, -0.652,     654.489,     654.151
  112, -0.688,     654.502,     654.155
  113, -0.724,     654.485,     654.172
  114, -0.760,     654.493,     654.133
  115, -0.796,     654.515,     654.185
  116, -0.832,     654.532,     654.202
  117, -0.868,     654.519,     654.181
  118, -0.904,     654.515,     654.198
  119, -0.940,     654.536,     654.210
  120, -0.976,     654.527,     654.210
  121, -1.012,     654.545,     654.215
  122, -1.048,     654.545,     654.193
  123, -1.084,     654.562,     654.193
  124, -1.120,     654.557,     654.210
  125, -1.156,     654.562,     654.198
  126, -1.192,     654.553,     654.206
  127, -1.228,     654.553,     654.223
  128, -1.264,     654.562,     654.219
  129, -1.300,     654.553,     654.193
  130, -1.336,     654.557,     654.223
  131, -1.372,     654.536,     654.236
  132, -1.408,     654.557,     654.189
  133, -1.444,     654.506,     654.206
  134, -1.480,     654.527,     654.206
  135, -1.516,     654.493,     654.228
  136, -1.552,     654.527,     654.219
  137, -1.588,     654.557,     654.215
  138, -1.624,     654.527,     654.215
  139, -1.660,     654.545,     654.206
  140, -1.696,     654.527,     654.202
  141, -1.732,     654.549,     654.236
  142, -1.768,     654.527,     654.232
  143, -1.804,     654.553,     654.240
  144, -1.840,     654.566,     654.249
  145, -1.876,     654.553,     654.262
  146, -1.912,     654.557,     654.249
  147, -1.948,     654.579,     654.240
  148, -1.984,     654.570,     654.228
  149, -2.020,     654.587,     654.219
  150, -2.056,     654.557,     654.232
  151, -2.092,     654.549,     654.215
  152, -2.128,     654.549,     654.215
  153, -2.164,     654.587,     654.219
  154, -2.200,     654.583,     654.236
  155, -2.236,     654.557,     654.253
  156, -2.272,     654.570,     654.232
  157, -2.308,     654.562,     654.236
  158, -2.344,     654.562,     654.228
  159, -2.380,     654.532,     654.236
  160, -2.416,     654.545,     654.232
  161, -2.452,     654.553,     654.236
  162, -2.488,     654.540,     654.253
  163, -2.524,     654.527,     654.253
  164, -2.560,     654.536,     654.270
  165, -2.596,     654.574,     654.296
  166, -2.632,     654.566,     654.275
  167, -2.668,     654.536,     654.245
  168, -2.704,     654.562,     654.223
  169, -2.740,     654.562,     654.232
  170, -2.776,     654.545,     654.232
  171, -2.812,     654.583,     654.223
  172, -2.848,     654.566,     654.210
  173, -2.884,     654.574,     654.215
  174,  0.300,     654.579,     654.236
  175,  0.336,     654.596,     654.253
  176,  0.372,     654.587,     654.279
  177,  0.408,     654.579,     654.232
  178,  0.444,     654.574,     654.236
  179,  0.480,     654.596,     654.249
  180,  0.516,     654.600,     654.245
  181,  0.552,     654.587,     654.262
  182,  0.588,     654.587,     654.283
  183,  0.624,     654.647,     654.258
  184,  0.660,     654.647,     654.275
  185,  0.696,     654.622,     654.288
  186,  0.732,     654.660,     654.270
  187,  0.768,     654.634,     654.292
  188,  0.804,     654.677,     654.288
  189,  0.840,     654.677,     654.309
  190,  0.876,     654.686,     654.300
  191,  0.912,     654.682,     654.305
  192,  0.948,     654.677,     654.322
  193,  0.984,     654.660,     654.305
  194,  1.020,     654.664,     654.309
  195,  1.056,     654.656,     654.305
  196,  1.092,     654.677,     654.305
  197,  1.128,     654.673,     654.309
  198,  1.164,     654.690,     654.313
  199,  1.200,     654.669,     654.309
  200,  1.236,     654.686,     654.300
  201,  1.272,     654.686,     654.313
  202,  1.308,     654.707,     654.292
  203,  1.344,     654.694,     654.288
  204,  1.380,     654.682,     654.296
  205,  1.416,     654.660,     654.275
  206,  1.452,     654.669,     654.300
  207,  1.488,     654.690,     654.270
  208,  1.524,     654.669,     654.292
  209,  1.560,     654.677,     654.305
  210,  1.596,     654.656,     654.318
  211,  1.632,     654.694,     654.305
  212,  1.668,     654.699,     654.318
  213,  1.704,     654.690,     654.326
  214,  1.740,     654.712,     654.330
  215,  1.776,     654.724,     654.335
  216,  1.812,     654.694,     654.326
  217,  1.848,     654.677,     654.339
  218,  1.884,     654.677,     654.292
  219,  1.920,     654.694,     654.300
  220,  1.956,     654.699,     654.292
  221,  1.992,     654.712,     654.296
  222,  2.028,     654.703,     654.300
  223,  2.064,     654.703,     654.300
  224,  2.100,     654.699,     654.313
  225,  2.136,     654.703,     654.305
  226,  2.172,     654.690,     654.300
